#FORMAT      : EMSA/MAS Spectral Data File
#VERSION     : 1.0
#TITLE       : qm-04963-Si-Pt4-0.35uA-5kV-HR-5mm
#DATE        : 07-SEP-2016
#TIME        : 16:26
#OWNER       : John Minter
#NPOINTS     : 2048.0
#NCOLUMNS    : 1.0
#XUNITS      : keV
#YUNITS      : counts
#DATATYPE    : XY
#XPERCHAN    : 0.005
#OFFSET      : -0.1
#SIGNALTYPE  : EDS
#CHOFFSET    : 20.0
#LIVETIME    : 60.0
#REALTIME    : 60.841365814
#BEAMKV      : 5.0
#PROBECUR    : 0.35
#MAGCAM      : 15000.0
#XTILTSTGE   : 0.0
#AZIMANGLE   : 0.0
#ELEVANGLE   : 35.0
#XPOSITION mm: 0.5450
#YPOSITION mm: 0.9940
#ZPOSITION mm: 4.9970
##OXINSTPT   : 4
##OXINSTSTROB: 47.84
##OXINSTELEMS: 14,6,8
##OXINSTLABEL: 14, 1.740, Si
##OXINSTLABEL: 6, 0.277, C
##OXINSTLABEL: 8, 0.525, O
#SPECTRUM    : Spectral Data Starts Here
-0.10000, 0.0
-0.09500, 0.0
-0.09000, 0.0
-0.08500, 0.0
-0.08000, 0.0
-0.07500, 0.0
-0.07000, 0.0
-0.06500, 2.0
-0.06000, 4.0
-0.05500, 8.0
-0.05000, 12.0
-0.04500, 30.0
-0.04000, 48.0
-0.03500, 73.0
-0.03000, 127.0
-0.02500, 200.0
-0.02000, 279.0
-0.01500, 410.0
-0.01000, 575.0
-0.00500, 700.0
0.00000, 792.0
0.00500, 915.0
0.01000, 1023.0
0.01500, 1120.0
0.02000, 1199.0
0.02500, 1276.0
0.03000, 1414.0
0.03500, 1509.0
0.04000, 1480.0
0.04500, 1439.0
0.05000, 1387.0
0.05500, 1202.0
0.06000, 1033.0
0.06500, 907.0
0.07000, 740.0
0.07500, 582.0
0.08000, 462.0
0.08500, 398.0
0.09000, 358.0
0.09500, 315.0
0.10000, 292.0
0.10500, 276.0
0.11000, 271.0
0.11500, 234.0
0.12000, 200.0
0.12500, 160.0
0.13000, 107.0
0.13500, 89.0
0.14000, 60.0
0.14500, 40.0
0.15000, 26.0
0.15500, 30.0
0.16000, 22.0
0.16500, 26.0
0.17000, 22.0
0.17500, 19.0
0.18000, 22.0
0.18500, 21.0
0.19000, 20.0
0.19500, 21.0
0.20000, 20.0
0.20500, 28.0
0.21000, 31.0
0.21500, 36.0
0.22000, 38.0
0.22500, 35.0
0.23000, 37.0
0.23500, 45.0
0.24000, 51.0
0.24500, 58.0
0.25000, 56.0
0.25500, 66.0
0.26000, 70.0
0.26500, 76.0
0.27000, 69.0
0.27500, 73.0
0.28000, 85.0
0.28500, 79.0
0.29000, 59.0
0.29500, 52.0
0.30000, 43.0
0.30500, 43.0
0.31000, 37.0
0.31500, 31.0
0.32000, 29.0
0.32500, 29.0
0.33000, 26.0
0.33500, 29.0
0.34000, 29.0
0.34500, 28.0
0.35000, 44.0
0.35500, 35.0
0.36000, 38.0
0.36500, 38.0
0.37000, 33.0
0.37500, 40.0
0.38000, 46.0
0.38500, 39.0
0.39000, 47.0
0.39500, 41.0
0.40000, 47.0
0.40500, 52.0
0.41000, 44.0
0.41500, 51.0
0.42000, 54.0
0.42500, 49.0
0.43000, 51.0
0.43500, 61.0
0.44000, 59.0
0.44500, 63.0
0.45000, 68.0
0.45500, 67.0
0.46000, 65.0
0.46500, 64.0
0.47000, 68.0
0.47500, 68.0
0.48000, 75.0
0.48500, 95.0
0.49000, 87.0
0.49500, 94.0
0.50000, 95.0
0.50500, 90.0
0.51000, 93.0
0.51500, 103.0
0.52000, 100.0
0.52500, 100.0
0.53000, 94.0
0.53500, 85.0
0.54000, 81.0
0.54500, 86.0
0.55000, 89.0
0.55500, 88.0
0.56000, 75.0
0.56500, 80.0
0.57000, 71.0
0.57500, 64.0
0.58000, 71.0
0.58500, 67.0
0.59000, 72.0
0.59500, 77.0
0.60000, 73.0
0.60500, 68.0
0.61000, 68.0
0.61500, 77.0
0.62000, 82.0
0.62500, 71.0
0.63000, 71.0
0.63500, 59.0
0.64000, 76.0
0.64500, 80.0
0.65000, 73.0
0.65500, 74.0
0.66000, 72.0
0.66500, 73.0
0.67000, 73.0
0.67500, 80.0
0.68000, 83.0
0.68500, 76.0
0.69000, 76.0
0.69500, 72.0
0.70000, 88.0
0.70500, 81.0
0.71000, 80.0
0.71500, 74.0
0.72000, 76.0
0.72500, 81.0
0.73000, 82.0
0.73500, 88.0
0.74000, 87.0
0.74500, 76.0
0.75000, 71.0
0.75500, 74.0
0.76000, 76.0
0.76500, 90.0
0.77000, 89.0
0.77500, 77.0
0.78000, 76.0
0.78500, 82.0
0.79000, 84.0
0.79500, 80.0
0.80000, 71.0
0.80500, 82.0
0.81000, 74.0
0.81500, 72.0
0.82000, 70.0
0.82500, 76.0
0.83000, 75.0
0.83500, 68.0
0.84000, 78.0
0.84500, 82.0
0.85000, 71.0
0.85500, 88.0
0.86000, 81.0
0.86500, 72.0
0.87000, 87.0
0.87500, 81.0
0.88000, 79.0
0.88500, 80.0
0.89000, 81.0
0.89500, 80.0
0.90000, 78.0
0.90500, 72.0
0.91000, 68.0
0.91500, 73.0
0.92000, 72.0
0.92500, 78.0
0.93000, 75.0
0.93500, 70.0
0.94000, 75.0
0.94500, 69.0
0.95000, 63.0
0.95500, 70.0
0.96000, 71.0
0.96500, 80.0
0.97000, 78.0
0.97500, 72.0
0.98000, 69.0
0.98500, 62.0
0.99000, 60.0
0.99500, 79.0
1.00000, 77.0
1.00500, 61.0
1.01000, 67.0
1.01500, 70.0
1.02000, 73.0
1.02500, 75.0
1.03000, 63.0
1.03500, 56.0
1.04000, 60.0
1.04500, 76.0
1.05000, 71.0
1.05500, 62.0
1.06000, 69.0
1.06500, 68.0
1.07000, 72.0
1.07500, 74.0
1.08000, 72.0
1.08500, 72.0
1.09000, 73.0
1.09500, 64.0
1.10000, 68.0
1.10500, 68.0
1.11000, 68.0
1.11500, 68.0
1.12000, 70.0
1.12500, 75.0
1.13000, 62.0
1.13500, 52.0
1.14000, 62.0
1.14500, 61.0
1.15000, 58.0
1.15500, 64.0
1.16000, 56.0
1.16500, 61.0
1.17000, 70.0
1.17500, 71.0
1.18000, 64.0
1.18500, 56.0
1.19000, 68.0
1.19500, 67.0
1.20000, 58.0
1.20500, 58.0
1.21000, 50.0
1.21500, 54.0
1.22000, 66.0
1.22500, 62.0
1.23000, 65.0
1.23500, 69.0
1.24000, 61.0
1.24500, 65.0
1.25000, 67.0
1.25500, 64.0
1.26000, 59.0
1.26500, 71.0
1.27000, 67.0
1.27500, 53.0
1.28000, 56.0
1.28500, 64.0
1.29000, 54.0
1.29500, 48.0
1.30000, 48.0
1.30500, 51.0
1.31000, 56.0
1.31500, 53.0
1.32000, 46.0
1.32500, 47.0
1.33000, 48.0
1.33500, 51.0
1.34000, 55.0
1.34500, 56.0
1.35000, 52.0
1.35500, 56.0
1.36000, 61.0
1.36500, 50.0
1.37000, 45.0
1.37500, 52.0
1.38000, 50.0
1.38500, 55.0
1.39000, 55.0
1.39500, 57.0
1.40000, 57.0
1.40500, 57.0
1.41000, 54.0
1.41500, 54.0
1.42000, 55.0
1.42500, 51.0
1.43000, 57.0
1.43500, 61.0
1.44000, 59.0
1.44500, 55.0
1.45000, 49.0
1.45500, 52.0
1.46000, 53.0
1.46500, 60.0
1.47000, 55.0
1.47500, 50.0
1.48000, 52.0
1.48500, 53.0
1.49000, 55.0
1.49500, 56.0
1.50000, 55.0
1.50500, 53.0
1.51000, 58.0
1.51500, 52.0
1.52000, 50.0
1.52500, 56.0
1.53000, 56.0
1.53500, 59.0
1.54000, 64.0
1.54500, 58.0
1.55000, 60.0
1.55500, 63.0
1.56000, 59.0
1.56500, 51.0
1.57000, 49.0
1.57500, 54.0
1.58000, 54.0
1.58500, 55.0
1.59000, 55.0
1.59500, 54.0
1.60000, 46.0
1.60500, 39.0
1.61000, 45.0
1.61500, 50.0
1.62000, 48.0
1.62500, 56.0
1.63000, 61.0
1.63500, 70.0
1.64000, 88.0
1.64500, 96.0
1.65000, 114.0
1.65500, 162.0
1.66000, 224.0
1.66500, 297.0
1.67000, 387.0
1.67500, 486.0
1.68000, 642.0
1.68500, 803.0
1.69000, 962.0
1.69500, 1213.0
1.70000, 1449.0
1.70500, 1751.0
1.71000, 2026.0
1.71500, 2266.0
1.72000, 2521.0
1.72500, 2811.0
1.73000, 2986.0
1.73500, 3054.0
1.74000, 3138.0
1.74500, 3177.0
1.75000, 3139.0
1.75500, 2968.0
1.76000, 2754.0
1.76500, 2580.0
1.77000, 2311.0
1.77500, 2107.0
1.78000, 1861.0
1.78500, 1532.0
1.79000, 1272.0
1.79500, 1066.0
1.80000, 896.0
1.80500, 737.0
1.81000, 592.0
1.81500, 462.0
1.82000, 410.0
1.82500, 352.0
1.83000, 292.0
1.83500, 254.0
1.84000, 211.0
1.84500, 192.0
1.85000, 175.0
1.85500, 149.0
1.86000, 145.0
1.86500, 135.0
1.87000, 115.0
1.87500, 112.0
1.88000, 104.0
1.88500, 91.0
1.89000, 82.0
1.89500, 68.0
1.90000, 57.0
1.90500, 54.0
1.91000, 52.0
1.91500, 41.0
1.92000, 32.0
1.92500, 35.0
1.93000, 30.0
1.93500, 25.0
1.94000, 23.0
1.94500, 29.0
1.95000, 31.0
1.95500, 23.0
1.96000, 20.0
1.96500, 23.0
1.97000, 29.0
1.97500, 31.0
1.98000, 32.0
1.98500, 25.0
1.99000, 23.0
1.99500, 23.0
2.00000, 24.0
2.00500, 24.0
2.01000, 24.0
2.01500, 27.0
2.02000, 27.0
2.02500, 27.0
2.03000, 29.0
2.03500, 26.0
2.04000, 19.0
2.04500, 25.0
2.05000, 31.0
2.05500, 25.0
2.06000, 20.0
2.06500, 21.0
2.07000, 22.0
2.07500, 21.0
2.08000, 23.0
2.08500, 26.0
2.09000, 26.0
2.09500, 21.0
2.10000, 22.0
2.10500, 22.0
2.11000, 25.0
2.11500, 28.0
2.12000, 21.0
2.12500, 18.0
2.13000, 23.0
2.13500, 26.0
2.14000, 27.0
2.14500, 21.0
2.15000, 19.0
2.15500, 21.0
2.16000, 23.0
2.16500, 23.0
2.17000, 20.0
2.17500, 19.0
2.18000, 19.0
2.18500, 22.0
2.19000, 23.0
2.19500, 23.0
2.20000, 20.0
2.20500, 18.0
2.21000, 22.0
2.21500, 19.0
2.22000, 14.0
2.22500, 18.0
2.23000, 22.0
2.23500, 20.0
2.24000, 19.0
2.24500, 16.0
2.25000, 14.0
2.25500, 17.0
2.26000, 25.0
2.26500, 24.0
2.27000, 19.0
2.27500, 19.0
2.28000, 25.0
2.28500, 29.0
2.29000, 23.0
2.29500, 22.0
2.30000, 24.0
2.30500, 26.0
2.31000, 24.0
2.31500, 18.0
2.32000, 19.0
2.32500, 20.0
2.33000, 22.0
2.33500, 21.0
2.34000, 16.0
2.34500, 15.0
2.35000, 18.0
2.35500, 17.0
2.36000, 20.0
2.36500, 23.0
2.37000, 22.0
2.37500, 20.0
2.38000, 22.0
2.38500, 23.0
2.39000, 19.0
2.39500, 22.0
2.40000, 20.0
2.40500, 19.0
2.41000, 19.0
2.41500, 15.0
2.42000, 15.0
2.42500, 16.0
2.43000, 17.0
2.43500, 23.0
2.44000, 22.0
2.44500, 17.0
2.45000, 16.0
2.45500, 16.0
2.46000, 19.0
2.46500, 19.0
2.47000, 16.0
2.47500, 20.0
2.48000, 20.0
2.48500, 18.0
2.49000, 20.0
2.49500, 18.0
2.50000, 13.0
2.50500, 15.0
2.51000, 19.0
2.51500, 19.0
2.52000, 20.0
2.52500, 17.0
2.53000, 17.0
2.53500, 21.0
2.54000, 21.0
2.54500, 19.0
2.55000, 18.0
2.55500, 17.0
2.56000, 17.0
2.56500, 22.0
2.57000, 20.0
2.57500, 18.0
2.58000, 13.0
2.58500, 18.0
2.59000, 20.0
2.59500, 17.0
2.60000, 16.0
2.60500, 15.0
2.61000, 14.0
2.61500, 15.0
2.62000, 16.0
2.62500, 16.0
2.63000, 17.0
2.63500, 18.0
2.64000, 13.0
2.64500, 14.0
2.65000, 16.0
2.65500, 13.0
2.66000, 13.0
2.66500, 16.0
2.67000, 17.0
2.67500, 18.0
2.68000, 17.0
2.68500, 13.0
2.69000, 16.0
2.69500, 16.0
2.70000, 14.0
2.70500, 16.0
2.71000, 14.0
2.71500, 16.0
2.72000, 16.0
2.72500, 13.0
2.73000, 15.0
2.73500, 15.0
2.74000, 15.0
2.74500, 14.0
2.75000, 12.0
2.75500, 14.0
2.76000, 14.0
2.76500, 10.0
2.77000, 11.0
2.77500, 14.0
2.78000, 13.0
2.78500, 9.0
2.79000, 13.0
2.79500, 15.0
2.80000, 14.0
2.80500, 17.0
2.81000, 16.0
2.81500, 13.0
2.82000, 15.0
2.82500, 18.0
2.83000, 15.0
2.83500, 10.0
2.84000, 16.0
2.84500, 19.0
2.85000, 19.0
2.85500, 20.0
2.86000, 16.0
2.86500, 18.0
2.87000, 19.0
2.87500, 13.0
2.88000, 11.0
2.88500, 13.0
2.89000, 12.0
2.89500, 12.0
2.90000, 16.0
2.90500, 16.0
2.91000, 13.0
2.91500, 16.0
2.92000, 18.0
2.92500, 14.0
2.93000, 14.0
2.93500, 13.0
2.94000, 10.0
2.94500, 9.0
2.95000, 11.0
2.95500, 16.0
2.96000, 18.0
2.96500, 8.0
2.97000, 13.0
2.97500, 16.0
2.98000, 14.0
2.98500, 15.0
2.99000, 18.0
2.99500, 20.0
3.00000, 14.0
3.00500, 7.0
3.01000, 7.0
3.01500, 9.0
3.02000, 13.0
3.02500, 15.0
3.03000, 16.0
3.03500, 14.0
3.04000, 13.0
3.04500, 13.0
3.05000, 11.0
3.05500, 13.0
3.06000, 15.0
3.06500, 15.0
3.07000, 12.0
3.07500, 8.0
3.08000, 11.0
3.08500, 15.0
3.09000, 13.0
3.09500, 11.0
3.10000, 11.0
3.10500, 12.0
3.11000, 12.0
3.11500, 10.0
3.12000, 10.0
3.12500, 10.0
3.13000, 12.0
3.13500, 14.0
3.14000, 14.0
3.14500, 14.0
3.15000, 12.0
3.15500, 13.0
3.16000, 17.0
3.16500, 15.0
3.17000, 12.0
3.17500, 9.0
3.18000, 12.0
3.18500, 13.0
3.19000, 9.0
3.19500, 11.0
3.20000, 12.0
3.20500, 9.0
3.21000, 11.0
3.21500, 11.0
3.22000, 9.0
3.22500, 10.0
3.23000, 12.0
3.23500, 11.0
3.24000, 8.0
3.24500, 9.0
3.25000, 13.0
3.25500, 9.0
3.26000, 10.0
3.26500, 12.0
3.27000, 10.0
3.27500, 11.0
3.28000, 10.0
3.28500, 8.0
3.29000, 10.0
3.29500, 10.0
3.30000, 10.0
3.30500, 11.0
3.31000, 11.0
3.31500, 11.0
3.32000, 11.0
3.32500, 13.0
3.33000, 6.0
3.33500, 8.0
3.34000, 7.0
3.34500, 10.0
3.35000, 14.0
3.35500, 16.0
3.36000, 8.0
3.36500, 12.0
3.37000, 15.0
3.37500, 15.0
3.38000, 14.0
3.38500, 7.0
3.39000, 9.0
3.39500, 9.0
3.40000, 11.0
3.40500, 8.0
3.41000, 8.0
3.41500, 10.0
3.42000, 9.0
3.42500, 10.0
3.43000, 8.0
3.43500, 8.0
3.44000, 7.0
3.44500, 8.0
3.45000, 5.0
3.45500, 5.0
3.46000, 11.0
3.46500, 12.0
3.47000, 10.0
3.47500, 9.0
3.48000, 8.0
3.48500, 9.0
3.49000, 11.0
3.49500, 8.0
3.50000, 6.0
3.50500, 10.0
3.51000, 11.0
3.51500, 9.0
3.52000, 10.0
3.52500, 9.0
3.53000, 8.0
3.53500, 7.0
3.54000, 7.0
3.54500, 7.0
3.55000, 6.0
3.55500, 5.0
3.56000, 9.0
3.56500, 9.0
3.57000, 9.0
3.57500, 7.0
3.58000, 6.0
3.58500, 7.0
3.59000, 8.0
3.59500, 8.0
3.60000, 9.0
3.60500, 9.0
3.61000, 9.0
3.61500, 6.0
3.62000, 5.0
3.62500, 4.0
3.63000, 6.0
3.63500, 8.0
3.64000, 8.0
3.64500, 5.0
3.65000, 5.0
3.65500, 8.0
3.66000, 8.0
3.66500, 2.0
3.67000, 7.0
3.67500, 11.0
3.68000, 9.0
3.68500, 7.0
3.69000, 4.0
3.69500, 4.0
3.70000, 8.0
3.70500, 8.0
3.71000, 7.0
3.71500, 10.0
3.72000, 10.0
3.72500, 6.0
3.73000, 5.0
3.73500, 5.0
3.74000, 7.0
3.74500, 6.0
3.75000, 8.0
3.75500, 6.0
3.76000, 6.0
3.76500, 9.0
3.77000, 8.0
3.77500, 8.0
3.78000, 5.0
3.78500, 8.0
3.79000, 5.0
3.79500, 3.0
3.80000, 6.0
3.80500, 6.0
3.81000, 5.0
3.81500, 6.0
3.82000, 1.0
3.82500, 2.0
3.83000, 5.0
3.83500, 9.0
3.84000, 6.0
3.84500, 5.0
3.85000, 8.0
3.85500, 7.0
3.86000, 8.0
3.86500, 7.0
3.87000, 6.0
3.87500, 10.0
3.88000, 6.0
3.88500, 3.0
3.89000, 6.0
3.89500, 5.0
3.90000, 6.0
3.90500, 9.0
3.91000, 6.0
3.91500, 8.0
3.92000, 6.0
3.92500, 2.0
3.93000, 4.0
3.93500, 6.0
3.94000, 6.0
3.94500, 4.0
3.95000, 6.0
3.95500, 5.0
3.96000, 5.0
3.96500, 4.0
3.97000, 5.0
3.97500, 9.0
3.98000, 8.0
3.98500, 4.0
3.99000, 4.0
3.99500, 4.0
4.00000, 8.0
4.00500, 7.0
4.01000, 6.0
4.01500, 3.0
4.02000, 5.0
4.02500, 5.0
4.03000, 2.0
4.03500, 4.0
4.04000, 5.0
4.04500, 6.0
4.05000, 5.0
4.05500, 6.0
4.06000, 5.0
4.06500, 4.0
4.07000, 7.0
4.07500, 5.0
4.08000, 6.0
4.08500, 8.0
4.09000, 2.0
4.09500, 2.0
4.10000, 2.0
4.10500, 3.0
4.11000, 5.0
4.11500, 6.0
4.12000, 3.0
4.12500, 7.0
4.13000, 5.0
4.13500, 2.0
4.14000, 2.0
4.14500, 3.0
4.15000, 3.0
4.15500, 1.0
4.16000, 1.0
4.16500, 1.0
4.17000, 5.0
4.17500, 5.0
4.18000, 2.0
4.18500, 2.0
4.19000, 3.0
4.19500, 2.0
4.20000, 1.0
4.20500, 3.0
4.21000, 5.0
4.21500, 4.0
4.22000, 2.0
4.22500, 4.0
4.23000, 6.0
4.23500, 1.0
4.24000, 1.0
4.24500, 2.0
4.25000, 2.0
4.25500, 5.0
4.26000, 5.0
4.26500, 7.0
4.27000, 5.0
4.27500, 1.0
4.28000, 3.0
4.28500, 5.0
4.29000, 5.0
4.29500, 4.0
4.30000, 7.0
4.30500, 1.0
4.31000, 2.0
4.31500, 2.0
4.32000, 3.0
4.32500, 4.0
4.33000, 0.0
4.33500, 1.0
4.34000, 5.0
4.34500, 4.0
4.35000, 6.0
4.35500, 1.0
4.36000, 3.0
4.36500, 3.0
4.37000, 4.0
4.37500, 3.0
4.38000, 3.0
4.38500, 6.0
4.39000, 4.0
4.39500, 4.0
4.40000, 1.0
4.40500, 1.0
4.41000, 3.0
4.41500, 1.0
4.42000, 2.0
4.42500, 1.0
4.43000, 1.0
4.43500, 0.0
4.44000, 1.0
4.44500, 2.0
4.45000, 3.0
4.45500, 1.0
4.46000, 1.0
4.46500, 2.0
4.47000, 2.0
4.47500, 4.0
4.48000, 2.0
4.48500, 2.0
4.49000, 4.0
4.49500, 4.0
4.50000, 2.0
4.50500, 0.0
4.51000, 1.0
4.51500, 3.0
4.52000, 2.0
4.52500, 2.0
4.53000, 1.0
4.53500, 2.0
4.54000, 2.0
4.54500, 3.0
4.55000, 1.0
4.55500, 3.0
4.56000, 1.0
4.56500, 0.0
4.57000, 2.0
4.57500, 2.0
4.58000, 3.0
4.58500, 1.0
4.59000, 3.0
4.59500, 1.0
4.60000, 1.0
4.60500, 3.0
4.61000, 1.0
4.61500, 3.0
4.62000, 2.0
4.62500, 2.0
4.63000, 3.0
4.63500, 1.0
4.64000, 0.0
4.64500, 2.0
4.65000, 2.0
4.65500, 4.0
4.66000, 2.0
4.66500, 0.0
4.67000, 1.0
4.67500, 0.0
4.68000, 2.0
4.68500, 1.0
4.69000, 2.0
4.69500, 1.0
4.70000, 2.0
4.70500, 0.0
4.71000, 0.0
4.71500, 1.0
4.72000, 1.0
4.72500, 0.0
4.73000, 1.0
4.73500, 2.0
4.74000, 0.0
4.74500, 2.0
4.75000, 4.0
4.75500, 3.0
4.76000, 1.0
4.76500, 0.0
4.77000, 0.0
4.77500, 2.0
4.78000, 1.0
4.78500, 0.0
4.79000, 1.0
4.79500, 1.0
4.80000, 2.0
4.80500, 0.0
4.81000, 1.0
4.81500, 1.0
4.82000, 0.0
4.82500, 2.0
4.83000, 1.0
4.83500, 1.0
4.84000, 1.0
4.84500, 0.0
4.85000, 1.0
4.85500, 1.0
4.86000, 1.0
4.86500, 1.0
4.87000, 1.0
4.87500, 1.0
4.88000, 0.0
4.88500, 1.0
4.89000, 0.0
4.89500, 0.0
4.90000, 1.0
4.90500, 2.0
4.91000, 0.0
4.91500, 0.0
4.92000, 1.0
4.92500, 2.0
4.93000, 0.0
4.93500, 0.0
4.94000, 0.0
4.94500, 2.0
4.95000, 1.0
4.95500, 0.0
4.96000, 0.0
4.96500, 0.0
4.97000, 0.0
4.97500, 1.0
4.98000, 0.0
4.98500, 0.0
4.99000, 0.0
4.99500, 0.0
5.00000, 0.0
5.00500, 1.0
5.01000, 0.0
5.01500, 0.0
5.02000, 1.0
5.02500, 0.0
5.03000, 0.0
5.03500, 0.0
5.04000, 0.0
5.04500, 0.0
5.05000, 0.0
5.05500, 0.0
5.06000, 0.0
5.06500, 0.0
5.07000, 0.0
5.07500, 0.0
5.08000, 1.0
5.08500, 0.0
5.09000, 0.0
5.09500, 0.0
5.10000, 0.0
5.10500, 0.0
5.11000, 0.0
5.11500, 0.0
5.12000, 0.0
5.12500, 0.0
5.13000, 0.0
5.13500, 0.0
5.14000, 0.0
5.14500, 0.0
5.15000, 0.0
5.15500, 0.0
5.16000, 0.0
5.16500, 0.0
5.17000, 0.0
5.17500, 0.0
5.18000, 0.0
5.18500, 0.0
5.19000, 0.0
5.19500, 0.0
5.20000, 0.0
5.20500, 1.0
5.21000, 0.0
5.21500, 0.0
5.22000, 0.0
5.22500, 0.0
5.23000, 0.0
5.23500, 0.0
5.24000, 0.0
5.24500, 0.0
5.25000, 0.0
5.25500, 0.0
5.26000, 0.0
5.26500, 0.0
5.27000, 0.0
5.27500, 0.0
5.28000, 0.0
5.28500, 0.0
5.29000, 0.0
5.29500, 0.0
5.30000, 0.0
5.30500, 0.0
5.31000, 0.0
5.31500, 0.0
5.32000, 0.0
5.32500, 0.0
5.33000, 0.0
5.33500, 0.0
5.34000, 0.0
5.34500, 0.0
5.35000, 0.0
5.35500, 0.0
5.36000, 0.0
5.36500, 0.0
5.37000, 0.0
5.37500, 0.0
5.38000, 0.0
5.38500, 0.0
5.39000, 0.0
5.39500, 0.0
5.40000, 0.0
5.40500, 0.0
5.41000, 0.0
5.41500, 0.0
5.42000, 0.0
5.42500, 0.0
5.43000, 0.0
5.43500, 0.0
5.44000, 0.0
5.44500, 0.0
5.45000, 0.0
5.45500, 0.0
5.46000, 0.0
5.46500, 0.0
5.47000, 0.0
5.47500, 0.0
5.48000, 0.0
5.48500, 0.0
5.49000, 0.0
5.49500, 0.0
5.50000, 0.0
5.50500, 0.0
5.51000, 0.0
5.51500, 0.0
5.52000, 0.0
5.52500, 0.0
5.53000, 0.0
5.53500, 0.0
5.54000, 0.0
5.54500, 0.0
5.55000, 0.0
5.55500, 0.0
5.56000, 0.0
5.56500, 0.0
5.57000, 0.0
5.57500, 0.0
5.58000, 0.0
5.58500, 0.0
5.59000, 0.0
5.59500, 0.0
5.60000, 0.0
5.60500, 0.0
5.61000, 0.0
5.61500, 0.0
5.62000, 0.0
5.62500, 0.0
5.63000, 0.0
5.63500, 0.0
5.64000, 0.0
5.64500, 0.0
5.65000, 0.0
5.65500, 0.0
5.66000, 0.0
5.66500, 0.0
5.67000, 0.0
5.67500, 0.0
5.68000, 0.0
5.68500, 0.0
5.69000, 0.0
5.69500, 0.0
5.70000, 0.0
5.70500, 0.0
5.71000, 0.0
5.71500, 0.0
5.72000, 0.0
5.72500, 0.0
5.73000, 0.0
5.73500, 0.0
5.74000, 0.0
5.74500, 0.0
5.75000, 0.0
5.75500, 0.0
5.76000, 0.0
5.76500, 0.0
5.77000, 0.0
5.77500, 0.0
5.78000, 0.0
5.78500, 0.0
5.79000, 0.0
5.79500, 0.0
5.80000, 0.0
5.80500, 0.0
5.81000, 0.0
5.81500, 0.0
5.82000, 0.0
5.82500, 0.0
5.83000, 0.0
5.83500, 0.0
5.84000, 0.0
5.84500, 0.0
5.85000, 0.0
5.85500, 0.0
5.86000, 0.0
5.86500, 0.0
5.87000, 0.0
5.87500, 0.0
5.88000, 0.0
5.88500, 0.0
5.89000, 0.0
5.89500, 0.0
5.90000, 0.0
5.90500, 0.0
5.91000, 0.0
5.91500, 0.0
5.92000, 0.0
5.92500, 0.0
5.93000, 0.0
5.93500, 0.0
5.94000, 0.0
5.94500, 0.0
5.95000, 0.0
5.95500, 0.0
5.96000, 0.0
5.96500, 0.0
5.97000, 0.0
5.97500, 0.0
5.98000, 0.0
5.98500, 0.0
5.99000, 0.0
5.99500, 0.0
6.00000, 0.0
6.00500, 0.0
6.01000, 0.0
6.01500, 0.0
6.02000, 0.0
6.02500, 0.0
6.03000, 0.0
6.03500, 0.0
6.04000, 0.0
6.04500, 0.0
6.05000, 0.0
6.05500, 0.0
6.06000, 0.0
6.06500, 0.0
6.07000, 0.0
6.07500, 0.0
6.08000, 0.0
6.08500, 0.0
6.09000, 0.0
6.09500, 0.0
6.10000, 0.0
6.10500, 0.0
6.11000, 0.0
6.11500, 0.0
6.12000, 0.0
6.12500, 0.0
6.13000, 0.0
6.13500, 0.0
6.14000, 0.0
6.14500, 0.0
6.15000, 0.0
6.15500, 0.0
6.16000, 0.0
6.16500, 0.0
6.17000, 0.0
6.17500, 0.0
6.18000, 0.0
6.18500, 0.0
6.19000, 0.0
6.19500, 0.0
6.20000, 0.0
6.20500, 0.0
6.21000, 0.0
6.21500, 0.0
6.22000, 0.0
6.22500, 0.0
6.23000, 0.0
6.23500, 0.0
6.24000, 0.0
6.24500, 0.0
6.25000, 0.0
6.25500, 0.0
6.26000, 0.0
6.26500, 0.0
6.27000, 0.0
6.27500, 0.0
6.28000, 0.0
6.28500, 0.0
6.29000, 0.0
6.29500, 0.0
6.30000, 0.0
6.30500, 0.0
6.31000, 0.0
6.31500, 0.0
6.32000, 0.0
6.32500, 0.0
6.33000, 0.0
6.33500, 0.0
6.34000, 0.0
6.34500, 0.0
6.35000, 0.0
6.35500, 0.0
6.36000, 0.0
6.36500, 0.0
6.37000, 0.0
6.37500, 0.0
6.38000, 0.0
6.38500, 0.0
6.39000, 0.0
6.39500, 0.0
6.40000, 0.0
6.40500, 0.0
6.41000, 0.0
6.41500, 0.0
6.42000, 0.0
6.42500, 0.0
6.43000, 0.0
6.43500, 0.0
6.44000, 0.0
6.44500, 0.0
6.45000, 0.0
6.45500, 0.0
6.46000, 0.0
6.46500, 0.0
6.47000, 0.0
6.47500, 0.0
6.48000, 0.0
6.48500, 0.0
6.49000, 0.0
6.49500, 0.0
6.50000, 0.0
6.50500, 0.0
6.51000, 0.0
6.51500, 0.0
6.52000, 0.0
6.52500, 0.0
6.53000, 0.0
6.53500, 0.0
6.54000, 0.0
6.54500, 0.0
6.55000, 0.0
6.55500, 0.0
6.56000, 0.0
6.56500, 0.0
6.57000, 0.0
6.57500, 0.0
6.58000, 0.0
6.58500, 0.0
6.59000, 0.0
6.59500, 0.0
6.60000, 0.0
6.60500, 0.0
6.61000, 0.0
6.61500, 0.0
6.62000, 0.0
6.62500, 0.0
6.63000, 0.0
6.63500, 0.0
6.64000, 0.0
6.64500, 0.0
6.65000, 0.0
6.65500, 0.0
6.66000, 0.0
6.66500, 0.0
6.67000, 0.0
6.67500, 0.0
6.68000, 0.0
6.68500, 0.0
6.69000, 0.0
6.69500, 0.0
6.70000, 0.0
6.70500, 0.0
6.71000, 0.0
6.71500, 0.0
6.72000, 0.0
6.72500, 0.0
6.73000, 0.0
6.73500, 0.0
6.74000, 0.0
6.74500, 0.0
6.75000, 0.0
6.75500, 0.0
6.76000, 0.0
6.76500, 0.0
6.77000, 0.0
6.77500, 0.0
6.78000, 0.0
6.78500, 0.0
6.79000, 0.0
6.79500, 0.0
6.80000, 0.0
6.80500, 0.0
6.81000, 0.0
6.81500, 0.0
6.82000, 0.0
6.82500, 0.0
6.83000, 0.0
6.83500, 0.0
6.84000, 0.0
6.84500, 0.0
6.85000, 0.0
6.85500, 0.0
6.86000, 0.0
6.86500, 0.0
6.87000, 0.0
6.87500, 0.0
6.88000, 0.0
6.88500, 0.0
6.89000, 0.0
6.89500, 0.0
6.90000, 0.0
6.90500, 0.0
6.91000, 0.0
6.91500, 0.0
6.92000, 0.0
6.92500, 0.0
6.93000, 0.0
6.93500, 0.0
6.94000, 0.0
6.94500, 0.0
6.95000, 0.0
6.95500, 0.0
6.96000, 0.0
6.96500, 0.0
6.97000, 0.0
6.97500, 0.0
6.98000, 0.0
6.98500, 0.0
6.99000, 0.0
6.99500, 0.0
7.00000, 0.0
7.00500, 0.0
7.01000, 0.0
7.01500, 0.0
7.02000, 0.0
7.02500, 0.0
7.03000, 0.0
7.03500, 0.0
7.04000, 0.0
7.04500, 0.0
7.05000, 0.0
7.05500, 0.0
7.06000, 0.0
7.06500, 0.0
7.07000, 0.0
7.07500, 0.0
7.08000, 0.0
7.08500, 0.0
7.09000, 0.0
7.09500, 0.0
7.10000, 0.0
7.10500, 0.0
7.11000, 0.0
7.11500, 0.0
7.12000, 0.0
7.12500, 0.0
7.13000, 0.0
7.13500, 0.0
7.14000, 0.0
7.14500, 0.0
7.15000, 0.0
7.15500, 0.0
7.16000, 0.0
7.16500, 0.0
7.17000, 0.0
7.17500, 0.0
7.18000, 0.0
7.18500, 0.0
7.19000, 0.0
7.19500, 0.0
7.20000, 0.0
7.20500, 0.0
7.21000, 0.0
7.21500, 0.0
7.22000, 0.0
7.22500, 0.0
7.23000, 0.0
7.23500, 0.0
7.24000, 0.0
7.24500, 0.0
7.25000, 0.0
7.25500, 0.0
7.26000, 0.0
7.26500, 0.0
7.27000, 0.0
7.27500, 0.0
7.28000, 0.0
7.28500, 0.0
7.29000, 0.0
7.29500, 0.0
7.30000, 0.0
7.30500, 0.0
7.31000, 0.0
7.31500, 0.0
7.32000, 0.0
7.32500, 0.0
7.33000, 0.0
7.33500, 0.0
7.34000, 0.0
7.34500, 0.0
7.35000, 0.0
7.35500, 0.0
7.36000, 0.0
7.36500, 0.0
7.37000, 0.0
7.37500, 0.0
7.38000, 0.0
7.38500, 0.0
7.39000, 0.0
7.39500, 0.0
7.40000, 0.0
7.40500, 0.0
7.41000, 0.0
7.41500, 0.0
7.42000, 0.0
7.42500, 0.0
7.43000, 0.0
7.43500, 0.0
7.44000, 0.0
7.44500, 0.0
7.45000, 0.0
7.45500, 0.0
7.46000, 0.0
7.46500, 0.0
7.47000, 0.0
7.47500, 0.0
7.48000, 0.0
7.48500, 0.0
7.49000, 0.0
7.49500, 0.0
7.50000, 0.0
7.50500, 0.0
7.51000, 0.0
7.51500, 0.0
7.52000, 0.0
7.52500, 0.0
7.53000, 0.0
7.53500, 0.0
7.54000, 0.0
7.54500, 0.0
7.55000, 0.0
7.55500, 0.0
7.56000, 0.0
7.56500, 0.0
7.57000, 0.0
7.57500, 0.0
7.58000, 0.0
7.58500, 0.0
7.59000, 0.0
7.59500, 0.0
7.60000, 0.0
7.60500, 0.0
7.61000, 0.0
7.61500, 0.0
7.62000, 0.0
7.62500, 0.0
7.63000, 0.0
7.63500, 0.0
7.64000, 0.0
7.64500, 0.0
7.65000, 0.0
7.65500, 0.0
7.66000, 0.0
7.66500, 0.0
7.67000, 0.0
7.67500, 0.0
7.68000, 0.0
7.68500, 0.0
7.69000, 0.0
7.69500, 0.0
7.70000, 0.0
7.70500, 0.0
7.71000, 0.0
7.71500, 0.0
7.72000, 0.0
7.72500, 0.0
7.73000, 0.0
7.73500, 0.0
7.74000, 0.0
7.74500, 0.0
7.75000, 0.0
7.75500, 0.0
7.76000, 0.0
7.76500, 0.0
7.77000, 0.0
7.77500, 0.0
7.78000, 0.0
7.78500, 0.0
7.79000, 0.0
7.79500, 0.0
7.80000, 0.0
7.80500, 0.0
7.81000, 0.0
7.81500, 0.0
7.82000, 0.0
7.82500, 0.0
7.83000, 0.0
7.83500, 0.0
7.84000, 0.0
7.84500, 0.0
7.85000, 0.0
7.85500, 0.0
7.86000, 0.0
7.86500, 0.0
7.87000, 0.0
7.87500, 0.0
7.88000, 0.0
7.88500, 0.0
7.89000, 0.0
7.89500, 0.0
7.90000, 0.0
7.90500, 0.0
7.91000, 0.0
7.91500, 0.0
7.92000, 0.0
7.92500, 0.0
7.93000, 0.0
7.93500, 0.0
7.94000, 0.0
7.94500, 0.0
7.95000, 0.0
7.95500, 0.0
7.96000, 0.0
7.96500, 0.0
7.97000, 0.0
7.97500, 0.0
7.98000, 0.0
7.98500, 0.0
7.99000, 0.0
7.99500, 0.0
8.00000, 0.0
8.00500, 0.0
8.01000, 0.0
8.01500, 0.0
8.02000, 0.0
8.02500, 0.0
8.03000, 0.0
8.03500, 0.0
8.04000, 0.0
8.04500, 0.0
8.05000, 0.0
8.05500, 0.0
8.06000, 0.0
8.06500, 0.0
8.07000, 0.0
8.07500, 0.0
8.08000, 0.0
8.08500, 0.0
8.09000, 0.0
8.09500, 0.0
8.10000, 0.0
8.10500, 0.0
8.11000, 0.0
8.11500, 0.0
8.12000, 0.0
8.12500, 0.0
8.13000, 0.0
8.13500, 0.0
8.14000, 0.0
8.14500, 0.0
8.15000, 0.0
8.15500, 0.0
8.16000, 0.0
8.16500, 0.0
8.17000, 0.0
8.17500, 0.0
8.18000, 0.0
8.18500, 0.0
8.19000, 0.0
8.19500, 0.0
8.20000, 0.0
8.20500, 0.0
8.21000, 0.0
8.21500, 0.0
8.22000, 0.0
8.22500, 0.0
8.23000, 0.0
8.23500, 0.0
8.24000, 0.0
8.24500, 0.0
8.25000, 0.0
8.25500, 0.0
8.26000, 0.0
8.26500, 0.0
8.27000, 0.0
8.27500, 0.0
8.28000, 0.0
8.28500, 0.0
8.29000, 0.0
8.29500, 0.0
8.30000, 0.0
8.30500, 0.0
8.31000, 0.0
8.31500, 0.0
8.32000, 0.0
8.32500, 0.0
8.33000, 0.0
8.33500, 0.0
8.34000, 0.0
8.34500, 0.0
8.35000, 0.0
8.35500, 0.0
8.36000, 0.0
8.36500, 0.0
8.37000, 0.0
8.37500, 0.0
8.38000, 0.0
8.38500, 0.0
8.39000, 0.0
8.39500, 0.0
8.40000, 0.0
8.40500, 0.0
8.41000, 0.0
8.41500, 0.0
8.42000, 0.0
8.42500, 0.0
8.43000, 0.0
8.43500, 0.0
8.44000, 0.0
8.44500, 0.0
8.45000, 0.0
8.45500, 0.0
8.46000, 0.0
8.46500, 0.0
8.47000, 0.0
8.47500, 0.0
8.48000, 0.0
8.48500, 0.0
8.49000, 0.0
8.49500, 0.0
8.50000, 0.0
8.50500, 0.0
8.51000, 0.0
8.51500, 0.0
8.52000, 0.0
8.52500, 0.0
8.53000, 0.0
8.53500, 0.0
8.54000, 0.0
8.54500, 0.0
8.55000, 0.0
8.55500, 0.0
8.56000, 0.0
8.56500, 0.0
8.57000, 0.0
8.57500, 0.0
8.58000, 0.0
8.58500, 0.0
8.59000, 0.0
8.59500, 0.0
8.60000, 0.0
8.60500, 0.0
8.61000, 0.0
8.61500, 0.0
8.62000, 0.0
8.62500, 0.0
8.63000, 0.0
8.63500, 0.0
8.64000, 0.0
8.64500, 0.0
8.65000, 0.0
8.65500, 0.0
8.66000, 0.0
8.66500, 0.0
8.67000, 0.0
8.67500, 0.0
8.68000, 0.0
8.68500, 0.0
8.69000, 0.0
8.69500, 0.0
8.70000, 0.0
8.70500, 0.0
8.71000, 0.0
8.71500, 0.0
8.72000, 0.0
8.72500, 0.0
8.73000, 0.0
8.73500, 0.0
8.74000, 0.0
8.74500, 0.0
8.75000, 0.0
8.75500, 0.0
8.76000, 0.0
8.76500, 0.0
8.77000, 0.0
8.77500, 0.0
8.78000, 0.0
8.78500, 0.0
8.79000, 0.0
8.79500, 0.0
8.80000, 0.0
8.80500, 0.0
8.81000, 0.0
8.81500, 0.0
8.82000, 0.0
8.82500, 0.0
8.83000, 0.0
8.83500, 0.0
8.84000, 0.0
8.84500, 0.0
8.85000, 0.0
8.85500, 0.0
8.86000, 0.0
8.86500, 0.0
8.87000, 0.0
8.87500, 0.0
8.88000, 0.0
8.88500, 0.0
8.89000, 0.0
8.89500, 0.0
8.90000, 0.0
8.90500, 0.0
8.91000, 0.0
8.91500, 0.0
8.92000, 0.0
8.92500, 0.0
8.93000, 0.0
8.93500, 0.0
8.94000, 0.0
8.94500, 0.0
8.95000, 0.0
8.95500, 0.0
8.96000, 0.0
8.96500, 0.0
8.97000, 0.0
8.97500, 0.0
8.98000, 0.0
8.98500, 0.0
8.99000, 0.0
8.99500, 0.0
9.00000, 0.0
9.00500, 0.0
9.01000, 0.0
9.01500, 0.0
9.02000, 0.0
9.02500, 0.0
9.03000, 0.0
9.03500, 0.0
9.04000, 0.0
9.04500, 0.0
9.05000, 0.0
9.05500, 0.0
9.06000, 0.0
9.06500, 0.0
9.07000, 0.0
9.07500, 0.0
9.08000, 0.0
9.08500, 0.0
9.09000, 0.0
9.09500, 0.0
9.10000, 0.0
9.10500, 0.0
9.11000, 0.0
9.11500, 0.0
9.12000, 0.0
9.12500, 0.0
9.13000, 0.0
9.13500, 0.0
9.14000, 0.0
9.14500, 0.0
9.15000, 0.0
9.15500, 0.0
9.16000, 0.0
9.16500, 0.0
9.17000, 0.0
9.17500, 0.0
9.18000, 0.0
9.18500, 0.0
9.19000, 0.0
9.19500, 0.0
9.20000, 0.0
9.20500, 0.0
9.21000, 0.0
9.21500, 0.0
9.22000, 0.0
9.22500, 0.0
9.23000, 0.0
9.23500, 0.0
9.24000, 0.0
9.24500, 0.0
9.25000, 0.0
9.25500, 0.0
9.26000, 0.0
9.26500, 0.0
9.27000, 0.0
9.27500, 0.0
9.28000, 0.0
9.28500, 0.0
9.29000, 0.0
9.29500, 0.0
9.30000, 0.0
9.30500, 0.0
9.31000, 0.0
9.31500, 0.0
9.32000, 0.0
9.32500, 0.0
9.33000, 0.0
9.33500, 0.0
9.34000, 0.0
9.34500, 0.0
9.35000, 0.0
9.35500, 0.0
9.36000, 0.0
9.36500, 0.0
9.37000, 0.0
9.37500, 0.0
9.38000, 0.0
9.38500, 0.0
9.39000, 0.0
9.39500, 0.0
9.40000, 0.0
9.40500, 0.0
9.41000, 0.0
9.41500, 0.0
9.42000, 0.0
9.42500, 0.0
9.43000, 0.0
9.43500, 0.0
9.44000, 0.0
9.44500, 0.0
9.45000, 0.0
9.45500, 0.0
9.46000, 0.0
9.46500, 0.0
9.47000, 0.0
9.47500, 0.0
9.48000, 0.0
9.48500, 0.0
9.49000, 0.0
9.49500, 0.0
9.50000, 0.0
9.50500, 0.0
9.51000, 0.0
9.51500, 0.0
9.52000, 0.0
9.52500, 0.0
9.53000, 0.0
9.53500, 0.0
9.54000, 0.0
9.54500, 0.0
9.55000, 0.0
9.55500, 0.0
9.56000, 0.0
9.56500, 0.0
9.57000, 0.0
9.57500, 0.0
9.58000, 0.0
9.58500, 0.0
9.59000, 0.0
9.59500, 0.0
9.60000, 0.0
9.60500, 0.0
9.61000, 0.0
9.61500, 0.0
9.62000, 0.0
9.62500, 0.0
9.63000, 0.0
9.63500, 0.0
9.64000, 0.0
9.64500, 0.0
9.65000, 0.0
9.65500, 0.0
9.66000, 0.0
9.66500, 0.0
9.67000, 0.0
9.67500, 0.0
9.68000, 0.0
9.68500, 0.0
9.69000, 0.0
9.69500, 0.0
9.70000, 0.0
9.70500, 0.0
9.71000, 0.0
9.71500, 0.0
9.72000, 0.0
9.72500, 0.0
9.73000, 0.0
9.73500, 0.0
9.74000, 0.0
9.74500, 0.0
9.75000, 0.0
9.75500, 0.0
9.76000, 0.0
9.76500, 0.0
9.77000, 0.0
9.77500, 0.0
9.78000, 0.0
9.78500, 0.0
9.79000, 0.0
9.79500, 0.0
9.80000, 0.0
9.80500, 0.0
9.81000, 0.0
9.81500, 0.0
9.82000, 0.0
9.82500, 0.0
9.83000, 0.0
9.83500, 0.0
9.84000, 0.0
9.84500, 0.0
9.85000, 0.0
9.85500, 0.0
9.86000, 0.0
9.86500, 0.0
9.87000, 0.0
9.87500, 0.0
9.88000, 0.0
9.88500, 0.0
9.89000, 0.0
9.89500, 0.0
9.90000, 0.0
9.90500, 0.0
9.91000, 0.0
9.91500, 0.0
9.92000, 0.0
9.92500, 0.0
9.93000, 0.0
9.93500, 0.0
9.94000, 0.0
9.94500, 0.0
9.95000, 0.0
9.95500, 0.0
9.96000, 0.0
9.96500, 0.0
9.97000, 0.0
9.97500, 0.0
9.98000, 0.0
9.98500, 0.0
9.99000, 0.0
9.99500, 0.0
10.00000, 0.0
10.00500, 0.0
10.01000, 0.0
10.01500, 0.0
10.02000, 0.0
10.02500, 0.0
10.03000, 0.0
10.03500, 0.0
10.04000, 0.0
10.04500, 0.0
10.05000, 0.0
10.05500, 0.0
10.06000, 0.0
10.06500, 0.0
10.07000, 0.0
10.07500, 0.0
10.08000, 0.0
10.08500, 0.0
10.09000, 0.0
10.09500, 0.0
10.10000, 0.0
10.10500, 0.0
10.11000, 0.0
10.11500, 0.0
10.12000, 0.0
10.12500, 0.0
10.13000, 0.0
10.13500, 0.0
#ENDOFDATA   : 
